File: results/rsa/mean_tga_diffs.csv
dorsal_ventral,ventral_dorsal
0.0159435,-0.0159435
0.00101437,-0.00101437
-0.0579535,0.0579535
-0.0470727,0.0470727
0.0768561,-0.0768561
-0.00537621,0.00537621
-0.126178,0.126178
-0.130993,0.130993
0.0845033,-0.0845033
-0.0648774,0.0648774
-0.0196928,0.0196928
-0.123327,0.123327
-0.0714361,0.0714361
-0.0961463,0.0961463
-0.100739,0.100739
0.12191,-0.12191
-0.00406663,0.00406663
0.0304701,-0.0304701
-0.183247,0.183247
-0.143807,0.143807
-0.0390946,0.0390946
-0.00603375,0.00603375
0.118257,-0.118257
-0.0646187,0.0646187
0.0970615,-0.0970615
-0.0460606,0.0460606
-0.166027,0.166027
-0.056804,0.056804
0.0216099,-0.0216099
0.125648,-0.125648
-0.0619474,0.0619474
0.0756653,-0.0756653
0.0364163,-0.0364163
-0.122259,0.122259
-0.0504527,0.0504527
-0.0451576,0.0451576
0.106633,-0.106633
-0.17,0.17
-0.00519819,0.00519819
0.0165083,-0.0165083
-0.0281202,0.0281202
-0.00429521,0.00429521
-0.0693226,0.0693226
0.118818,-0.118818
0.0618245,-0.0618245
0.08875,-0.08875
0.00225881,-0.00225881
-0.00333607,0.00333607
0.0330558,-0.0330558
0.032257,-0.032257
-0.0221428,0.0221428
0.0379509,-0.0379509
0.0727643,-0.0727643
0.0811058,-0.0811058
-0.0471781,0.0471781
0.0355154,-0.0355154
0.0300922,-0.0300922
0.0325205,-0.0325205
0.0601619,-0.0601619
0.0222368,-0.0222368
0.0558454,-0.0558454
-0.0262846,0.0262846
-0.0837478,0.0837478
-0.00193269,0.00193269
0.0865865,-0.0865865
0.0489214,-0.0489214
0.157218,-0.157218
-0.00985392,0.00985392
0.100878,-0.100878
-0.111029,0.111029
0.10213,-0.10213
-0.0165256,0.0165256
0.0893616,-0.0893616
0.014178,-0.014178
-0.01301,0.01301
0.000161894,-0.000161894
0.170818,-0.170818
0.099234,-0.099234
0.0539019,-0.0539019
0.0389631,-0.0389631
0.000991961,-0.000991961
0.0383583,-0.0383583
0.160232,-0.160232
0.0520901,-0.0520901
-0.0237189,0.0237189
0.0643975,-0.0643975
0.062738,-0.062738
0.0574656,-0.0574656
0.165108,-0.165108
0.00365896,-0.00365896
-0.101331,0.101331
0.0526621,-0.0526621
0.0789335,-0.0789335
0.105327,-0.105327
0.214348,-0.214348
0.0787285,-0.0787285
0.00194469,-0.00194469
0.0298832,-0.0298832
0.101324,-0.101324
-0.0675478,0.0675478
0.190175,-0.190175
0.148148,-0.148148
0.114139,-0.114139
0.0683801,-0.0683801
0.157508,-0.157508
-0.101605,0.101605
0.0294873,-0.0294873
-0.026295,0.026295
0.0359674,-0.0359674
0.113828,-0.113828
0.250978,-0.250978
0.0686367,-0.0686367
0.129287,-0.129287
0.263198,-0.263198
0.104946,-0.104946
0.210291,-0.210291
0.30587,-0.30587
0.00549535,-0.00549535
-0.0701815,0.0701815
0.0720388,-0.0720388
0.103592,-0.103592
0.314178,-0.314178
-0.150203,0.150203
0.0411936,-0.0411936
0.134804,-0.134804
0.179063,-0.179063
0.0624901,-0.0624901
-0.00317345,0.00317345
-0.0538452,0.0538452
0.0181159,-0.0181159
0.173534,-0.173534
-0.0832745,0.0832745
0.357151,-0.357151
-0.0833033,0.0833033
0.0794918,-0.0794918
0.230456,-0.230456
0.0731845,-0.0731845
0.286763,-0.286763
-0.101332,0.101332
0.0632795,-0.0632795
0.256783,-0.256783
0.157953,-0.157953
0.207462,-0.207462
0.00240166,-0.00240166
0.0113417,-0.0113417
0.229121,-0.229121
0.153659,-0.153659
0.156775,-0.156775
0.228154,-0.228154
-0.0842315,0.0842315
0.108199,-0.108199
0.0910097,-0.0910097
-0.00398352,0.00398352
0.25589,-0.25589
-0.2058,0.2058
0.0951174,-0.0951174
0.147718,-0.147718
0.00378471,-0.00378471
0.263273,-0.263273
-0.152028,0.152028
0.245199,-0.245199
0.035398,-0.035398
0.143265,-0.143265
0.0198127,-0.0198127
0.227867,-0.227867
0.177468,-0.177468
0.00895691,-0.00895691
0.19246,-0.19246
-0.13155,0.13155
0.199787,-0.199787
0.0863613,-0.0863613
0.0786751,-0.0786751
0.0149153,-0.0149153
0.140752,-0.140752
0.0416517,-0.0416517
0.025364,-0.025364
-0.0629377,0.0629377
0.113447,-0.113447
0.0578898,-0.0578898
-0.0566489,0.0566489
-0.0765858,0.0765858
-0.000298864,0.000298864
0.0413133,-0.0413133
-0.00507238,0.00507238
-0.00610847,0.00610847
-0.0990584,0.0990584
0.0172373,-0.0172373
0.0248277,-0.0248277
0.0508837,-0.0508837
-0.0816545,0.0816545
0.0159886,-0.0159886
-0.0160616,0.0160616
0.0857316,-0.0857316
-0.0591181,0.0591181
-0.0489264,0.0489264
-0.172529,0.172529
0.0750391,-0.0750391
-0.00502021,0.00502021
-0.0610181,0.0610181
-0.237783,0.237783
-0.0564893,0.0564893
-0.0292466,0.0292466
-0.180995,0.180995
-0.0859898,0.0859898
0.0603644,-0.0603644
-0.10262,0.10262
-0.393408,0.393408
-0.0455203,0.0455203
-0.119897,0.119897
-0.324162,0.324162
-0.259607,0.259607
0.0256496,-0.0256496
-0.219619,0.219619
-0.413876,0.413876
0.0176257,-0.0176257
-0.260348,0.260348
-0.318432,0.318432
-0.251475,0.251475
-0.274952,0.274952
-0.190691,0.190691
-0.26814,0.26814
-0.248461,0.248461
-0.13287,0.13287
-0.24572,0.24572
-0.228609,0.228609
-0.126106,0.126106
-0.209352,0.209352
-0.155058,0.155058
-0.0389683,0.0389683
-0.0781532,0.0781532
-0.109609,0.109609
-0.0778951,0.0778951
0.0421979,-0.0421979
0.0626666,-0.0626666
-0.0932033,0.0932033
0.0310363,-0.0310363
0.0578311,-0.0578311
-0.0434344,0.0434344
0.104752,-0.104752
-0.0619553,0.0619553
0.215284,-0.215284
-0.0842787,0.0842787
0.065282,-0.065282
0.079124,-0.079124
-0.0533657,0.0533657
0.0639752,-0.0639752
-0.0707186,0.0707186
0.0222159,-0.0222159
-0.0979595,0.0979595
0.185971,-0.185971
-0.0860177,0.0860177
0.154533,-0.154533
-0.0444756,0.0444756
-0.0147083,0.0147083
-0.0406633,0.0406633
-0.150596,0.150596
0.109881,-0.109881
-0.0952578,0.0952578
0.225521,-0.225521
0.226676,-0.226676
0.0552976,-0.0552976
-0.0392092,0.0392092
0.410878,-0.410878
0.400097,-0.400097
0.251757,-0.251757
0.197923,-0.197923
0.231741,-0.231741
0.232431,-0.232431
0.0632165,-0.0632165
0.16377,-0.16377
0.103375,-0.103375