File: results/rsa/mean_partial_tga_diffs.csv
dorsal_ventral,ventral_dorsal
-0.023065,0.0101944
0.0369363,-0.00321877
-0.0990506,0.0667569
0.0896325,-0.104224
0.0939071,-0.110499
-0.0176626,0.027113
-0.245287,0.200908
-0.39216,0.391765
0.0977439,-0.100692
-0.0029919,-0.0176887
0.0796189,-0.0601113
-0.00634964,0.00483783
-0.111813,0.117444
-0.224777,0.224409
-0.225718,0.214706
0.0559724,-0.0569039
-0.0141642,0.00193022
-0.000147796,0.0430635
0.0500049,-0.0514252
-0.173018,0.176856
-0.27583,0.275219
-0.273817,0.264544
0.111271,-0.105341
-0.027921,0.0161498
0.00749277,0.0513621
0.122087,-0.131372
-0.255023,0.235114
-0.242269,0.240781
-0.299028,0.289412
0.132532,-0.128655
-0.0245756,0.0162821
0.0592437,0.0171297
0.116074,-0.138459
-0.287052,0.260507
-0.11817,0.126247
-0.301906,0.292924
-0.0270179,0.025946
-0.0589394,0.0476679
0.0796724,-0.109585
0.0324277,-0.0368662
-0.283559,0.275451
-0.141662,0.0935052
-0.32878,0.355069
-0.0584266,0.0174432
-0.0465785,0.0438428
0.0811474,-0.094848
-0.0124235,0.0352513
-0.142907,0.170767
-0.178206,0.185819
0.0267687,-0.0353244
0.0892121,-0.123417
0.116142,-0.130171
0.0540046,-0.0668495
-0.130172,0.133832
-0.101164,0.108609
-0.0629786,0.0667942
0.0798212,-0.115161
0.0395032,-0.0694125
0.150406,-0.172404
0.0236535,-0.0245493
-0.157176,0.155759
-0.19709,0.188645
-0.135971,0.170094
0.266335,-0.266033
0.0943554,-0.10952
0.0592577,-0.056131
-0.0735285,0.0791724
-0.0759211,0.0721541
-0.0569598,0.0574884
0.0899898,-0.103435
0.0144465,-0.00961467
-0.0359692,0.0371726
-0.0459348,0.053246
-0.109878,0.102438
-0.134657,0.153092
0.235553,-0.243798
0.0964115,-0.0810682
0.0483241,-0.0382702
-0.0221932,0.036071
-0.0897225,0.0740407
-0.148545,0.150621
0.120602,-0.117833
0.0947217,-0.0945253
0.154623,-0.118612
0.0565757,-0.0285977
-0.0834839,0.079297
-0.0947157,0.0750204
-0.158238,0.155788
0.054615,-0.0242784
0.195395,-0.120857
0.085129,-0.0536877
-0.112887,0.118702
-0.0811102,0.046527
-0.153804,0.156375
-0.0341164,0.123142
0.254394,-0.185468
-0.00841587,0.0115037
-0.104043,0.131536
-0.152422,0.121679
-0.000961229,-0.00408184
-0.140427,0.241717
0.241454,-0.258776
-0.162228,0.15677
-0.103373,0.12687
-0.149951,0.162226
0.00401772,-0.0467439
-0.0597376,0.037697
0.143771,-0.148495
-0.131846,0.122698
-0.00810539,0.0114844
-0.184224,0.183023
0.0947268,-0.0321811
0.0275718,0.0225245
0.034135,-0.023347
-0.0495101,0.0267958
0.129651,-0.117284
0.172691,-0.167799
-0.0512571,0.00450474
0.0541524,-0.0364218
0.0244153,-0.0347923
0.208875,-0.199698
-0.0600536,0.0677339
0.268682,-0.252497
-0.032122,0.0986882
0.015592,-0.0345129
0.174534,-0.208689
0.268671,-0.254826
0.0633609,-0.0551415
-0.151449,0.125186
0.0418505,-0.0575309
0.0861613,-0.0824905
0.195404,-0.185298
0.0594673,-0.0585006
-0.0299249,0.105575
0.00661144,0.0154262
0.0599357,-0.0851072
0.175493,-0.189551
0.0254269,-0.0438044
0.0363647,0.0598867
-0.0433326,0.0936943
0.0364296,-0.123104
0.0687055,-0.0985794
-0.0085,-0.0184361
-0.00362927,0.0364277
-0.000888863,0.0321269
0.0392167,-0.109825
-0.0470382,0.0407445
-0.0197498,0.0115467
-0.0394567,0.0620558
0.103411,-0.0981925
-0.0850155,0.0706906
-0.0979718,0.13744
-0.0365011,0.0503843
-0.00286921,0.00615744
0.120902,-0.162302
-0.258813,0.290974
-0.0965504,0.161351
-0.167981,0.207004
0.0208454,-0.0347209
0.157071,-0.16124
-0.223781,0.262917
-0.0201672,0.06732
0.043264,-0.0383371
0.138669,-0.149912
-0.0900242,0.0595722
-0.1891,0.20019
0.0100117,-0.0220394
0.016798,-0.0437684
0.270105,-0.239178
-0.181004,0.160934
-0.113072,0.142481
0.108629,-0.132672
0.106174,-0.159861
0.0623003,-0.010886
-0.0600221,0.100329
0.0812074,-0.0329827
-0.19195,0.168694
0.170712,-0.102886
-0.0584787,0.0258502
-0.0150254,0.024257
-0.177431,0.170938
0.171588,-0.159694
0.0321573,-0.0758072
-0.11282,0.153331
-0.0558209,0.0685473
0.219562,-0.222085
0.113786,-0.129499
-0.103872,0.153675
0.354822,-0.361103
0.248978,-0.259893
0.160049,-0.151958
-0.0885099,0.186389
0.340975,-0.340814
0.222672,-0.199205
0.147576,-0.125268
-0.120943,0.207154
-0.0477135,0.044941
0.104373,-0.0901282
0.0755129,-0.082421
-0.0860542,0.124942
-0.018909,0.0141557
0.233713,-0.223238
0.0496973,-0.0400911
0.0438012,-0.0400354
0.241283,-0.247143
0.303387,-0.279521
-0.039182,0.0527244
0.142301,-0.161766
0.162511,-0.17391
0.065399,-0.0904791
0.0662964,-0.0691144
0.2097,-0.198859
0.261076,-0.21718
0.00351604,0.00564023
0.0562835,-0.0432666
0.162082,-0.151256
0.190548,-0.186861
0.288041,-0.276128
0.152163,-0.10114
0.154564,-0.122446
0.320846,-0.310475
0.138701,-0.125424
0.147155,-0.137716
0.287263,-0.29037
0.156689,-0.137609
0.162145,-0.173087
0.332512,-0.349444
0.177396,-0.182694
0.161869,-0.164603
0.41348,-0.434967
0.173711,-0.228941
0.257699,-0.256837
0.269027,-0.294679
0.0902801,-0.131701
0.502578,-0.512984
0.0553097,-0.0557122
0.170943,-0.167035
0.263965,-0.289868
0.0327717,-0.076304
0.537616,-0.562018
0.0917733,-0.0779529
0.168843,-0.153297
0.250479,-0.24581
0.0507188,-0.0481613
0.542088,-0.517524
-0.0471985,0.0366912
0.489044,-0.481235
-0.0300371,0.0262181
0.353804,-0.341161
0.0922073,-0.101822
0.315601,-0.320103
0.0725356,-0.0855039
0.360044,-0.39781
0.01477,-0.0136524
0.381782,-0.399522
0.132896,-0.139982
0.131341,-0.142617
0.292917,-0.29321
0.00425073,-0.0115586
0.0489609,-0.0480959
0.179916,-0.174626
0.0198545,-0.00290533
-0.0623797,0.053875
-0.0538735,0.00764943
-0.0804171,0.0447752
-0.107043,0.0989863
-0.124039,0.123399
-0.0048235,0.00606461
-0.0222547,0.0235731
0.090609,-0.077261
-0.0518098,0.0380537